TITLE	
DATA TYPE	
ORIGIN	JASCO
OWNER	
DATE	16/04/20
TIME	15:32:02
SPECTROMETER/DATA SYSTEM	JASCO Corp., J-810, Rev. 1.00
RESOLUTION	
DELTAX	-0.1
XUNITS	NANOMETERS
YUNITS	CD[mdeg]
Y2UNITS	HT[V]
FIRSTX	350.0000
LASTX	215.4000
NPOINTS	1347
FIRSTY	0.74802
MAXY	3.87806
MINY	-200.00000
XYDATA
350.0000	0.748024	308.285
349.9000	0.777736	308.25
349.8000	0.854948	308.205
349.7000	0.923485	308.156
349.6000	0.959177	308.115
349.5000	1.00676	308.079
349.4000	1.01353	308.041
349.3000	0.979756	308.007
349.2000	0.969856	307.968
349.1000	0.960982	307.929
349.0000	0.989407	307.882
348.9000	1.08448	307.833
348.8000	1.12586	307.784
348.7000	1.13598	307.737
348.6000	1.16658	307.699
348.5000	1.1676	307.662
348.4000	1.14737	307.629
348.3000	1.11376	307.592
348.2000	1.07383	307.543
348.1000	0.998274	307.512
348.0000	0.921988	307.483
347.9000	0.924132	307.446
347.8000	0.911868	307.402
347.7000	0.931712	307.36
347.6000	0.94864	307.326
347.5000	0.986351	307.289
347.4000	1.02029	307.248
347.3000	1.01724	307.223
347.2000	0.957883	307.191
347.1000	0.954874	307.156
347.0000	0.924452	307.112
346.9000	0.905566	307.071
346.8000	0.885814	307.029
346.7000	0.858763	306.988
346.6000	0.868214	306.942
346.5000	0.861986	306.896
346.4000	0.833048	306.846
346.3000	0.830536	306.799
346.2000	0.834232	306.755
346.1000	0.917686	306.706
346.0000	0.917828	306.656
345.9000	0.888405	306.61
345.8000	0.826372	306.563
345.7000	0.793906	306.521
345.6000	0.811292	306.477
345.5000	0.835497	306.43
345.4000	0.869965	306.379
345.3000	0.91553	306.339
345.2000	0.952634	306.299
345.1000	1.03346	306.248
345.0000	1.12481	306.193
344.9000	1.1414	306.154
344.8000	1.15499	306.114
344.7000	1.18194	306.081
344.6000	1.15012	306.041
344.5000	1.11339	305.998
344.4000	1.09744	305.965
344.3000	1.0923	305.926
344.2000	1.09217	305.881
344.1000	1.09521	305.838
344.0000	1.07347	305.794
343.9000	1.03914	305.742
343.8000	1.05343	305.697
343.7000	1.07886	305.65
343.6000	1.12298	305.587
343.5000	1.12976	305.537
343.4000	1.11557	305.493
343.3000	1.07204	305.45
343.2000	1.08239	305.406
343.1000	1.11283	305.351
343.0000	1.16024	305.288
342.9000	1.2323	305.24
342.8000	1.27385	305.19
342.7000	1.28998	305.127
342.6000	1.35868	305.073
342.5000	1.38217	305.024
342.4000	1.38651	304.958
342.3000	1.419	304.925
342.2000	1.4527	304.873
342.1000	1.41849	304.822
342.0000	1.36552	304.776
341.9000	1.29419	304.739
341.8000	1.23195	304.682
341.7000	1.19172	304.629
341.6000	1.20482	304.583
341.5000	1.2343	304.53
341.4000	1.22798	304.487
341.3000	1.19623	304.443
341.2000	1.15999	304.39
341.1000	1.13237	304.35
341.0000	1.12931	304.313
340.9000	1.13637	304.251
340.8000	1.12332	304.2
340.7000	1.1077	304.155
340.6000	1.07498	304.11
340.5000	1.00688	304.07
340.4000	0.989575	304.033
340.3000	0.978732	303.99
340.2000	1.00037	303.95
340.1000	1.05245	303.92
340.0000	1.07432	303.878
339.9000	1.03553	303.835
339.8000	0.990178	303.793
339.7000	0.930807	303.738
339.6000	0.885928	303.698
339.5000	0.826289	303.657
339.4000	0.783891	303.604
339.3000	0.741222	303.555
339.2000	0.725278	303.531
339.1000	0.780667	303.492
339.0000	0.813998	303.443
338.9000	0.871394	303.382
338.8000	0.918239	303.318
338.7000	0.93282	303.264
338.6000	0.947958	303.223
338.5000	0.94418	303.18
338.4000	0.949994	303.125
338.3000	0.954312	303.078
338.2000	1.03426	303.029
338.1000	1.13942	302.979
338.0000	1.229	302.925
337.9000	1.32402	302.882
337.8000	1.38565	302.845
337.7000	1.46515	302.794
337.6000	1.51852	302.743
337.5000	1.54428	302.687
337.4000	1.55206	302.639
337.3000	1.59073	302.583
337.2000	1.62229	302.55
337.1000	1.65565	302.509
337.0000	1.71272	302.464
336.9000	1.75785	302.411
336.8000	1.75279	302.364
336.7000	1.75007	302.317
336.6000	1.75355	302.274
336.5000	1.74825	302.227
336.4000	1.73298	302.183
336.3000	1.72391	302.143
336.2000	1.71546	302.099
336.1000	1.69313	302.063
336.0000	1.65917	302.039
335.9000	1.66857	301.999
335.8000	1.67467	301.957
335.7000	1.64392	301.918
335.6000	1.60084	301.882
335.5000	1.56504	301.837
335.4000	1.55337	301.799
335.3000	1.52327	301.759
335.2000	1.48729	301.72
335.1000	1.48098	301.671
335.0000	1.44118	301.639
334.9000	1.36222	301.602
334.8000	1.31385	301.559
334.7000	1.23649	301.529
334.6000	1.18948	301.491
334.5000	1.14781	301.45
334.4000	1.14934	301.403
334.3000	1.13406	301.368
334.2000	1.09363	301.339
334.1000	1.06857	301.307
334.0000	1.03814	301.265
333.9000	1.03358	301.22
333.8000	1.01636	301.182
333.7000	0.955115	301.144
333.6000	0.970244	301.094
333.5000	0.966351	301.045
333.4000	0.988701	301.004
333.3000	1.03042	300.953
333.2000	1.02259	300.906
333.1000	0.994643	300.875
333.0000	1.01828	300.831
332.9000	1.00803	300.793
332.8000	1.02572	300.746
332.7000	1.04105	300.696
332.6000	1.07629	300.651
332.5000	1.09318	300.602
332.4000	1.07562	300.562
332.3000	1.11267	300.529
332.2000	1.09695	300.492
332.1000	1.14855	300.448
332.0000	1.21867	300.408
331.9000	1.23599	300.382
331.8000	1.26216	300.347
331.7000	1.25826	300.31
331.6000	1.29175	300.282
331.5000	1.36684	300.252
331.4000	1.44233	300.221
331.3000	1.50657	300.184
331.2000	1.55094	300.148
331.1000	1.54369	300.11
331.0000	1.53254	300.077
330.9000	1.51917	300.04
330.8000	1.51044	300.002
330.7000	1.4897	299.964
330.6000	1.43653	299.923
330.5000	1.39861	299.902
330.4000	1.33918	299.872
330.3000	1.29756	299.848
330.2000	1.29292	299.811
330.1000	1.31571	299.78
330.0000	1.29603	299.752
329.9000	1.2354	299.717
329.8000	1.15602	299.679
329.7000	1.08692	299.647
329.6000	1.05692	299.612
329.5000	1.01146	299.585
329.4000	0.99658	299.557
329.3000	0.964906	299.526
329.2000	0.966861	299.494
329.1000	0.970332	299.457
329.0000	1.04911	299.424
328.9000	1.1293	299.394
328.8000	1.17859	299.352
328.7000	1.19899	299.315
328.6000	1.18666	299.279
328.5000	1.18293	299.249
328.4000	1.15508	299.208
328.3000	1.17198	299.163
328.2000	1.20773	299.124
328.1000	1.23931	299.088
328.0000	1.2543	299.056
327.9000	1.26822	299.02
327.8000	1.31328	298.981
327.7000	1.33369	298.947
327.6000	1.3623	298.915
327.5000	1.36438	298.881
327.4000	1.34715	298.854
327.3000	1.28323	298.821
327.2000	1.23634	298.789
327.1000	1.2256	298.767
327.0000	1.23015	298.725
326.9000	1.22374	298.694
326.8000	1.20656	298.672
326.7000	1.22148	298.646
326.6000	1.24092	298.617
326.5000	1.28164	298.576
326.4000	1.26116	298.532
326.3000	1.24996	298.492
326.2000	1.20896	298.463
326.1000	1.18819	298.432
326.0000	1.18319	298.386
325.9000	1.18362	298.352
325.8000	1.18724	298.31
325.7000	1.22945	298.272
325.6000	1.32499	298.237
325.5000	1.36251	298.186
325.4000	1.37901	298.148
325.3000	1.37556	298.12
325.2000	1.38118	298.072
325.1000	1.38293	298.028
325.0000	1.37406	297.987
324.9000	1.33813	297.953
324.8000	1.32397	297.918
324.7000	1.30987	297.887
324.6000	1.35583	297.832
324.5000	1.40873	297.781
324.4000	1.41852	297.729
324.3000	1.40287	297.699
324.2000	1.39505	297.663
324.1000	1.38012	297.624
324.0000	1.32095	297.582
323.9000	1.25265	297.538
323.8000	1.25138	297.496
323.7000	1.22253	297.444
323.6000	1.22857	297.41
323.5000	1.25725	297.376
323.4000	1.3035	297.335
323.3000	1.31789	297.287
323.2000	1.32894	297.249
323.1000	1.32664	297.203
323.0000	1.33959	297.159
322.9000	1.31489	297.132
322.8000	1.28786	297.108
322.7000	1.24516	297.083
322.6000	1.26134	297.039
322.5000	1.24478	297.009
322.4000	1.23799	296.974
322.3000	1.22294	296.926
322.2000	1.20235	296.884
322.1000	1.21108	296.859
322.0000	1.26198	296.814
321.9000	1.26473	296.771
321.8000	1.20709	296.747
321.7000	1.17596	296.726
321.6000	1.18962	296.712
321.5000	1.22927	296.697
321.4000	1.26848	296.686
321.3000	1.26906	296.672
321.2000	1.26984	296.659
321.1000	1.31225	296.638
321.0000	1.35758	296.625
320.9000	1.3524	296.613
320.8000	1.3594	296.604
320.7000	1.38436	296.604
320.6000	1.38235	296.603
320.5000	1.41784	296.594
320.4000	1.41273	296.585
320.3000	1.36421	296.578
320.2000	1.34731	296.571
320.1000	1.36889	296.563
320.0000	1.41216	296.552
319.9000	1.42827	296.533
319.8000	1.39658	296.519
319.7000	1.35587	296.505
319.6000	1.36201	296.496
319.5000	1.36501	296.472
319.4000	1.37162	296.45
319.3000	1.34395	296.422
319.2000	1.35549	296.394
319.1000	1.37567	296.36
319.0000	1.41316	296.331
318.9000	1.44122	296.319
318.8000	1.39026	296.305
318.7000	1.3612	296.286
318.6000	1.39918	296.263
318.5000	1.45231	296.236
318.4000	1.46926	296.206
318.3000	1.45508	296.173
318.2000	1.4435	296.145
318.1000	1.39801	296.123
318.0000	1.37507	296.099
317.9000	1.34457	296.074
317.8000	1.32261	296.055
317.7000	1.3253	296.03
317.6000	1.33606	296.005
317.5000	1.34005	295.993
317.4000	1.34134	295.981
317.3000	1.33509	295.959
317.2000	1.33694	295.928
317.1000	1.34666	295.91
317.0000	1.36357	295.884
316.9000	1.36493	295.869
316.8000	1.31557	295.845
316.7000	1.28567	295.831
316.6000	1.27949	295.811
316.5000	1.29543	295.793
316.4000	1.35321	295.775
316.3000	1.37958	295.754
316.2000	1.38166	295.739
316.1000	1.37456	295.723
316.0000	1.36092	295.713
315.9000	1.37123	295.71
315.8000	1.39308	295.689
315.7000	1.39269	295.675
315.6000	1.39528	295.662
315.5000	1.38868	295.657
315.4000	1.40128	295.645
315.3000	1.37401	295.633
315.2000	1.35948	295.62
315.1000	1.39585	295.597
315.0000	1.39467	295.576
314.9000	1.37136	295.56
314.8000	1.35283	295.541
314.7000	1.34213	295.517
314.6000	1.34663	295.487
314.5000	1.37384	295.456
314.4000	1.38743	295.434
314.3000	1.37851	295.411
314.2000	1.3677	295.383
314.1000	1.36592	295.366
314.0000	1.36044	295.336
313.9000	1.34822	295.305
313.8000	1.31474	295.269
313.7000	1.29931	295.241
313.6000	1.29539	295.214
313.5000	1.29264	295.192
313.4000	1.29816	295.183
313.3000	1.32088	295.167
313.2000	1.38291	295.145
313.1000	1.44456	295.121
313.0000	1.49475	295.105
312.9000	1.47522	295.091
312.8000	1.45182	295.077
312.7000	1.43939	295.058
312.6000	1.43369	295.037
312.5000	1.41344	295.027
312.4000	1.40366	295.017
312.3000	1.42378	295.008
312.2000	1.44707	295.011
312.1000	1.4757	294.998
312.0000	1.4834	294.99
311.9000	1.48348	294.983
311.8000	1.48944	294.969
311.7000	1.5154	294.954
311.6000	1.48994	294.953
311.5000	1.46913	294.948
311.4000	1.42483	294.946
311.3000	1.40266	294.945
311.2000	1.39575	294.946
311.1000	1.40727	294.953
311.0000	1.41277	294.959
310.9000	1.43934	294.966
310.8000	1.44282	294.97
310.7000	1.4056	294.981
310.6000	1.39691	294.997
310.5000	1.42726	295.009
310.4000	1.43527	295.02
310.3000	1.47788	295.024
310.2000	1.50023	295.037
310.1000	1.49706	295.044
310.0000	1.48687	295.045
309.9000	1.48004	295.044
309.8000	1.47197	295.058
309.7000	1.47267	295.06
309.6000	1.4929	295.068
309.5000	1.51705	295.076
309.4000	1.51814	295.085
309.3000	1.48814	295.087
309.2000	1.48054	295.083
309.1000	1.54028	295.074
309.0000	1.57194	295.067
308.9000	1.60047	295.047
308.8000	1.6124	295.04
308.7000	1.63471	295.039
308.6000	1.61013	295.05
308.5000	1.58636	295.047
308.4000	1.55849	295.045
308.3000	1.56015	295.054
308.2000	1.55551	295.059
308.1000	1.56022	295.062
308.0000	1.56877	295.072
307.9000	1.56542	295.062
307.8000	1.57733	295.053
307.7000	1.59205	295.037
307.6000	1.63934	295.04
307.5000	1.63902	295.035
307.4000	1.60509	295.041
307.3000	1.56073	295.047
307.2000	1.5221	295.057
307.1000	1.53535	295.072
307.0000	1.57267	295.078
306.9000	1.62708	295.076
306.8000	1.66941	295.081
306.7000	1.68531	295.08
306.6000	1.6653	295.085
306.5000	1.64598	295.091
306.4000	1.64439	295.095
306.3000	1.67543	295.105
306.2000	1.72334	295.11
306.1000	1.75272	295.121
306.0000	1.78692	295.128
305.9000	1.81277	295.141
305.8000	1.85162	295.156
305.7000	1.88247	295.169
305.6000	1.92754	295.183
305.5000	1.94623	295.2
305.4000	1.9118	295.206
305.3000	1.83764	295.223
305.2000	1.81426	295.24
305.1000	1.81331	295.27
305.0000	1.81126	295.291
304.9000	1.8336	295.305
304.8000	1.88147	295.319
304.7000	1.86938	295.341
304.6000	1.86257	295.364
304.5000	1.85294	295.404
304.4000	1.83469	295.436
304.3000	1.82078	295.46
304.2000	1.7767	295.479
304.1000	1.75978	295.501
304.0000	1.74572	295.521
303.9000	1.71481	295.548
303.8000	1.69775	295.568
303.7000	1.68971	295.587
303.6000	1.67146	295.605
303.5000	1.63748	295.626
303.4000	1.66563	295.644
303.3000	1.70143	295.675
303.2000	1.71492	295.702
303.1000	1.70746	295.719
303.0000	1.73678	295.731
302.9000	1.73829	295.749
302.8000	1.77679	295.764
302.7000	1.76011	295.786
302.6000	1.71418	295.809
302.5000	1.68897	295.84
302.4000	1.6652	295.873
302.3000	1.60995	295.908
302.2000	1.622	295.936
302.1000	1.64879	295.972
302.0000	1.72773	296.013
301.9000	1.80804	296.049
301.8000	1.82991	296.094
301.7000	1.83127	296.126
301.6000	1.83785	296.154
301.5000	1.81024	296.191
301.4000	1.80137	296.226
301.3000	1.75155	296.263
301.2000	1.70341	296.295
301.1000	1.71234	296.332
301.0000	1.76409	296.365
300.9000	1.86177	296.404
300.8000	1.93589	296.438
300.7000	1.98604	296.467
300.6000	2.05493	296.505
300.5000	2.08617	296.554
300.4000	2.10787	296.586
300.3000	2.08464	296.621
300.2000	2.08905	296.658
300.1000	2.11118	296.692
300.0000	2.11356	296.749
299.9000	2.1023	296.801
299.8000	2.09275	296.851
299.7000	2.10945	296.903
299.6000	2.12151	296.964
299.5000	2.13008	297.022
299.4000	2.08507	297.076
299.3000	2.0734	297.138
299.2000	2.02617	297.188
299.1000	2.02529	297.242
299.0000	2.03372	297.297
298.9000	2.04344	297.334
298.8000	2.00338	297.39
298.7000	1.99057	297.452
298.6000	2.01236	297.499
298.5000	2.02044	297.551
298.4000	1.9968	297.603
298.3000	2.00938	297.636
298.2000	2.02493	297.675
298.1000	2.05703	297.73
298.0000	2.10241	297.784
297.9000	2.13666	297.828
297.8000	2.15253	297.875
297.7000	2.18056	297.923
297.6000	2.15965	297.968
297.5000	2.17159	298.018
297.4000	2.16212	298.067
297.3000	2.139	298.109
297.2000	2.13663	298.167
297.1000	2.15716	298.218
297.0000	2.13615	298.272
296.9000	2.10812	298.326
296.8000	2.06707	298.376
296.7000	2.03839	298.436
296.6000	2.00523	298.487
296.5000	2.01307	298.548
296.4000	1.99163	298.615
296.3000	1.94822	298.679
296.2000	1.89979	298.74
296.1000	1.89127	298.798
296.0000	1.86178	298.862
295.9000	1.80207	298.924
295.8000	1.76182	298.985
295.7000	1.77301	299.053
295.6000	1.80162	299.132
295.5000	1.82826	299.184
295.4000	1.82501	299.246
295.3000	1.83384	299.303
295.2000	1.80371	299.38
295.1000	1.82971	299.444
295.0000	1.83901	299.523
294.9000	1.81739	299.606
294.8000	1.80677	299.662
294.7000	1.82466	299.719
294.6000	1.82932	299.777
294.5000	1.83566	299.862
294.4000	1.8513	299.944
294.3000	1.92597	300.021
294.2000	1.98223	300.109
294.1000	1.98743	300.198
294.0000	1.94975	300.276
293.9000	1.89502	300.356
293.8000	1.8685	300.444
293.7000	1.87323	300.537
293.6000	1.897	300.625
293.5000	1.96048	300.711
293.4000	1.98445	300.796
293.3000	2.01632	300.873
293.2000	2.04699	300.958
293.1000	2.04409	301.05
293.0000	2.02735	301.142
292.9000	2.03779	301.235
292.8000	2.03932	301.316
292.7000	2.0302	301.4
292.6000	2.00651	301.484
292.5000	1.96628	301.565
292.4000	1.94563	301.659
292.3000	1.9143	301.744
292.2000	1.91326	301.824
292.1000	1.89039	301.907
292.0000	1.83905	301.973
291.9000	1.77927	302.049
291.8000	1.76211	302.127
291.7000	1.73437	302.202
291.6000	1.72079	302.28
291.5000	1.70406	302.364
291.4000	1.72441	302.444
291.3000	1.7401	302.511
291.2000	1.71247	302.586
291.1000	1.69877	302.65
291.0000	1.70018	302.728
290.9000	1.72704	302.804
290.8000	1.78654	302.876
290.7000	1.83272	302.936
290.6000	1.86246	303.008
290.5000	1.88418	303.091
290.4000	1.92729	303.184
290.3000	1.9752	303.274
290.2000	2.0202	303.351
290.1000	2.03373	303.436
290.0000	2.04653	303.527
289.9000	2.03301	303.615
289.8000	2.01452	303.691
289.7000	2.00529	303.78
289.6000	1.99241	303.889
289.5000	2.0245	303.98
289.4000	2.07439	304.069
289.3000	2.08448	304.152
289.2000	2.08226	304.23
289.1000	2.08055	304.314
289.0000	2.10439	304.404
288.9000	2.10899	304.482
288.8000	2.10361	304.553
288.7000	2.09537	304.625
288.6000	2.06392	304.697
288.5000	2.02607	304.763
288.4000	2.03849	304.819
288.3000	2.07618	304.874
288.2000	2.10265	304.94
288.1000	2.08992	305.009
288.0000	2.0937	305.06
287.9000	2.10438	305.107
287.8000	2.09679	305.17
287.7000	2.07039	305.238
287.6000	2.02665	305.306
287.5000	1.97206	305.368
287.4000	1.98322	305.432
287.3000	2.00419	305.493
287.2000	1.99447	305.55
287.1000	1.94922	305.606
287.0000	1.93648	305.663
286.9000	1.95713	305.739
286.8000	1.95405	305.815
286.7000	1.91432	305.889
286.6000	1.8411	305.967
286.5000	1.81574	306.044
286.4000	1.8293	306.124
286.3000	1.82981	306.204
286.2000	1.83473	306.283
286.1000	1.83743	306.36
286.0000	1.87378	306.437
285.9000	1.93061	306.527
285.8000	1.95549	306.611
285.7000	1.9168	306.69
285.6000	1.86679	306.787
285.5000	1.86707	306.894
285.4000	1.93069	307.002
285.3000	1.98409	307.115
285.2000	1.96976	307.201
285.1000	1.98377	307.292
285.0000	2.00623	307.374
284.9000	2.06425	307.459
284.8000	2.08085	307.539
284.7000	2.13312	307.624
284.6000	2.15079	307.71
284.5000	2.14369	307.798
284.4000	2.14727	307.892
284.3000	2.1103	307.978
284.2000	2.07171	308.057
284.1000	2.10257	308.145
284.0000	2.15688	308.223
283.9000	2.21082	308.286
283.8000	2.24177	308.352
283.7000	2.21029	308.408
283.6000	2.2254	308.463
283.5000	2.28784	308.549
283.4000	2.33718	308.64
283.3000	2.39743	308.73
283.2000	2.3987	308.801
283.1000	2.41407	308.878
283.0000	2.43447	308.943
282.9000	2.45223	309.003
282.8000	2.46846	309.059
282.7000	2.4629	309.116
282.6000	2.45024	309.181
282.5000	2.45311	309.252
282.4000	2.42533	309.321
282.3000	2.41144	309.379
282.2000	2.38697	309.442
282.1000	2.40867	309.509
282.0000	2.37453	309.562
281.9000	2.29551	309.625
281.8000	2.25943	309.679
281.7000	2.19721	309.718
281.6000	2.15195	309.756
281.5000	2.13539	309.809
281.4000	2.11739	309.861
281.3000	2.1048	309.913
281.2000	2.06029	309.976
281.1000	2.01264	310.039
281.0000	2.02084	310.09
280.9000	2.02816	310.154
280.8000	2.0026	310.194
280.7000	2.00213	310.237
280.6000	2.04245	310.297
280.5000	2.03203	310.348
280.4000	2.04451	310.401
280.3000	2.1305	310.448
280.2000	2.17711	310.496
280.1000	2.23164	310.552
280.0000	2.23973	310.609
279.9000	2.27754	310.668
279.8000	2.30663	310.708
279.7000	2.30577	310.748
279.6000	2.29752	310.796
279.5000	2.32653	310.832
279.4000	2.35072	310.873
279.3000	2.35822	310.909
279.2000	2.43063	310.945
279.1000	2.48643	310.99
279.0000	2.49693	311.044
278.9000	2.52473	311.092
278.8000	2.55101	311.134
278.7000	2.53133	311.18
278.6000	2.4972	311.227
278.5000	2.44153	311.266
278.4000	2.42281	311.303
278.3000	2.44422	311.362
278.2000	2.42237	311.407
278.1000	2.44606	311.46
278.0000	2.45819	311.515
277.9000	2.46521	311.556
277.8000	2.48808	311.606
277.7000	2.54692	311.679
277.6000	2.58587	311.739
277.5000	2.57622	311.786
277.4000	2.56451	311.832
277.3000	2.50844	311.88
277.2000	2.47677	311.917
277.1000	2.50546	311.948
277.0000	2.51256	311.981
276.9000	2.53554	312.037
276.8000	2.57014	312.092
276.7000	2.56404	312.164
276.6000	2.54932	312.212
276.5000	2.53987	312.271
276.4000	2.57049	312.324
276.3000	2.59401	312.359
276.2000	2.66345	312.402
276.1000	2.71695	312.431
276.0000	2.69624	312.464
275.9000	2.68879	312.497
275.8000	2.7264	312.548
275.7000	2.73979	312.6
275.6000	2.79609	312.643
275.5000	2.79485	312.705
275.4000	2.79586	312.784
275.3000	2.82089	312.843
275.2000	2.83198	312.888
275.1000	2.84418	312.926
275.0000	2.84447	312.947
274.9000	2.82876	312.994
274.8000	2.81176	313.038
274.7000	2.76626	313.088
274.6000	2.721	313.149
274.5000	2.66246	313.201
274.4000	2.63661	313.251
274.3000	2.62055	313.282
274.2000	2.58898	313.322
274.1000	2.58588	313.362
274.0000	2.65452	313.39
273.9000	2.71193	313.424
273.8000	2.74046	313.461
273.7000	2.73756	313.476
273.6000	2.76967	313.517
273.5000	2.80018	313.557
273.4000	2.85218	313.606
273.3000	2.87559	313.651
273.2000	2.9007	313.687
273.1000	2.95399	313.717
273.0000	3.02455	313.743
272.9000	3.11429	313.779
272.8000	3.17195	313.798
272.7000	3.17687	313.827
272.6000	3.24278	313.852
272.5000	3.31013	313.894
272.4000	3.32344	313.931
272.3000	3.30833	313.965
272.2000	3.27065	314.006
272.1000	3.30584	314.051
272.0000	3.36803	314.096
271.9000	3.39487	314.131
271.8000	3.40631	314.176
271.7000	3.41626	314.204
271.6000	3.43805	314.232
271.5000	3.42411	314.27
271.4000	3.38122	314.313
271.3000	3.32301	314.378
271.2000	3.27981	314.458
271.1000	3.27218	314.529
271.0000	3.28641	314.605
270.9000	3.22734	314.685
